# wave(A) trans
5497.6 0.125
5498.3 0.131
5499.0 0.122
5499.700000000001 0.132
5500.4 0.137
5501.2 0.133
5501.900000000001 0.128
5502.6 0.124
5503.3 0.122
5504.0 0.124
5504.700000000001 0.127
5505.4 0.125
5506.1 0.113
5506.900000000001 0.128
5507.6 0.123
5508.3 0.132
5509.0 0.125
5509.700000000001 0.118
5510.4 0.109
5511.1 0.122
5511.799999999999 0.125
5512.5 0.122
5513.3 0.126
5514.0 0.126
5514.700000000001 0.137
5515.4 0.139
5516.1 0.137
5516.799999999999 0.128
5517.5 0.122
5518.200000000001 0.124
5518.9 0.134
5519.6 0.132
5520.4 0.141
5521.1 0.133
5521.799999999999 0.136
5522.5 0.138
5523.200000000001 0.14
5523.9 0.126
5524.6 0.137
5525.299999999999 0.142
5526.0 0.144
5526.7 0.134
5527.5 0.143
5528.200000000001 0.138
5528.9 0.129
5529.6 0.149
5530.299999999999 0.154
5531.0 0.138
5531.7 0.159
5532.4 0.139
5533.099999999999 0.151
5533.8 0.151
5534.5 0.159
5535.299999999999 0.136
5536.0 0.142
5536.7 0.161
5537.4 0.16
5538.099999999999 0.163
5538.8 0.138
5539.5 0.142
5540.2 0.165
5540.900000000001 0.166
5541.599999999999 0.162
5542.3 0.167
5543.0 0.174
5543.8 0.166
5544.5 0.171
5545.2 0.169
5545.900000000001 0.176
5546.599999999999 0.172
5547.3 0.17
5548.0 0.18
5548.7 0.183
5549.400000000001 0.18
5550.1 0.182
5550.8 0.186
5551.5 0.188
5552.200000000001 0.187
5552.9 0.193
5553.7 0.208
5554.400000000001 0.186
5555.1 0.199
5555.8 0.196
5556.5 0.216
5557.200000000001 0.199
5557.9 0.205
5558.6 0.218
5559.299999999999 0.221
5560.0 0.216
5560.700000000001 0.231
5561.4 0.22
5562.1 0.228
5562.799999999999 0.233
5563.5 0.234
5564.2 0.241
5565.0 0.246
5565.700000000001 0.245
5566.4 0.273
5567.1 0.274
5567.799999999999 0.263
5568.5 0.268
5569.2 0.272
5569.9 0.281
5570.599999999999 0.302
5571.3 0.312
5572.0 0.306
5572.7 0.307
5573.400000000001 0.316
5574.099999999999 0.314
5574.8 0.326
5575.5 0.334
5576.2 0.355
5576.900000000001 0.347
5577.6 0.37
5578.3 0.376
5579.0 0.376
5579.700000000001 0.395
5580.4 0.394
5581.2 0.405
5581.900000000001 0.425
5582.6 0.438
5583.3 0.442
5584.0 0.446
5584.700000000001 0.464
5585.4 0.498
5586.1 0.499
5586.799999999999 0.493
5587.5 0.526
5588.200000000001 0.551
5588.9 0.564
5589.6 0.586
5590.299999999999 0.605
5591.0 0.621
5591.7 0.637
5592.4 0.653
5593.099999999999 0.676
5593.8 0.699
5594.5 0.734
5595.2 0.776
5595.900000000001 0.794
5596.599999999999 0.819
5597.3 0.835
5598.0 0.85
5598.7 0.891
5599.400000000001 0.946
5600.1 0.962
5600.8 0.987
5601.5 1.034
5602.200000000001 1.068
5602.9 1.128
5603.6 1.192
5604.299999999999 1.205
5605.0 1.238
5605.700000000001 1.316
5606.4 1.416
5607.1 1.431
5607.799999999999 1.518
5608.5 1.53
5609.2 1.657
5609.9 1.67
5610.599999999999 1.8
5611.3 1.83
5612.0 1.888
5612.7 2.03
5613.400000000001 2.111
5614.099999999999 2.193
5614.8 2.377
5615.5 2.413
5616.2 2.539
5616.900000000001 2.699
5617.6 2.769
5618.3 2.889
5619.0 3.051
5619.700000000001 3.239
5620.4 3.389
5621.1 3.555
5621.799999999999 3.62
5622.5 3.845
5623.200000000001 4.084
5623.9 4.327
5624.6 4.592
5625.299999999999 4.804
5626.0 5.113
5626.7 5.355
5627.4 5.568
5628.099999999999 5.906
5628.8 6.194
5629.5 6.536
5630.2 6.959
5630.900000000001 7.301
5631.599999999999 7.699
5632.3 8.115
5633.0 8.597
5633.7 9.054
5634.400000000001 9.678
5635.1 10.134
5635.8 10.695
5636.5 11.341
5637.1 12.074
5637.799999999999 12.799
5638.5 13.533
5639.2 14.204
5639.9 14.965
5640.599999999999 16.001
5641.3 16.926
5642.0 17.862
5642.7 18.877
5643.400000000001 20.011
5644.099999999999 21.248
5644.8 22.437
5645.5 23.668
5646.2 25.047
5646.900000000001 26.478
5647.6 27.887
5648.3 29.328
5649.0 31.025
5649.700000000001 32.643
5650.4 34.438
5651.1 36.365
5651.799999999999 38.084
5652.4 40.01
5653.099999999999 41.773
5653.8 43.613
5654.5 45.919
5655.2 47.83
5655.900000000001 49.916
5656.599999999999 51.834
5657.3 53.838
5658.0 55.957
5658.7 57.963
5659.400000000001 59.893
5660.1 61.702
5660.8 63.549
5661.5 65.385
5662.200000000001 67.024
5662.9 69.012
5663.5 70.453
5664.2 71.983
5664.9 73.583
5665.599999999999 74.765
5666.3 76.027
5667.0 77.093
5667.7 77.987
5668.400000000001 79.021
5669.099999999999 80.05
5669.8 80.496
5670.5 81.294
5671.2 81.886
5671.799999999999 82.262
5672.5 82.869
5673.200000000001 83.353
5673.9 83.398
5674.6 83.836
5675.299999999999 84.064
5676.0 84.13
5676.7 84.007
5677.4 84.393
5678.099999999999 84.194
5678.8 84.445
5679.5 84.403
5680.1 84.215
5680.8 84.42
5681.5 84.387
5682.200000000001 83.945
5682.9 84.091
5683.6 83.917
5684.299999999999 83.719
5685.0 83.552
5685.700000000001 83.841
5686.4 83.709
5687.0 83.429
5687.7 83.147
5688.400000000001 83.444
5689.099999999999 82.744
5689.8 83.347
5690.5 83.178
5691.2 82.712
5691.900000000001 82.991
5692.6 82.924
5693.200000000001 82.968
5693.9 82.736
5694.6 82.903
5695.299999999999 83.076
5696.0 83.041
5696.7 82.707
5697.4 83.124
5698.099999999999 83.011
5698.7 83.005
5699.400000000001 83.092
5700.1 83.303
5700.8 83.284
5701.5 83.593
5702.200000000001 83.803
5702.9 83.855
5703.6 83.605
5704.2 83.975
5704.9 84.191
5705.599999999999 84.538
5706.3 84.651
5707.0 84.129
5707.7 84.766
5708.400000000001 85.081
5709.099999999999 84.862
5709.700000000001 85.264
5710.4 85.823
5711.1 85.321
5711.799999999999 85.952
5712.5 86.305
5713.200000000001 86.499
5713.9 86.799
5714.5 86.697
5715.2 87.276
5715.900000000001 87.643
5716.599999999999 87.789
5717.3 88.049
5718.0 88.184
5718.7 88.24
5719.299999999999 88.849
5720.0 88.841
5720.700000000001 88.882
5721.4 89.239
5722.1 89.719
5722.799999999999 89.963
5723.400000000001 90.035
5724.099999999999 90.426
5724.8 90.316
5725.5 90.745
5726.2 90.525
5726.900000000001 90.977
5727.5 91.516
5728.200000000001 91.456
5728.9 91.86
5729.6 91.839
5730.299999999999 92.081
5731.0 92.502
5731.599999999999 92.277
5732.3 92.375
5733.0 92.93
5733.7 92.841
5734.400000000001 92.511
5735.1 92.973
5735.700000000001 93.18
5736.4 93.285
5737.1 93.703
5737.799999999999 93.87
5738.5 93.855
5739.099999999999 94.076
5739.8 94.151
5740.5 94.143
5741.2 94.393
5741.900000000001 94.492
5742.6 94.436
5743.200000000001 94.746
5743.9 94.347
5744.6 94.775
5745.299999999999 94.936
5746.0 94.942
5746.599999999999 95.201
5747.3 95.319
5748.0 95.282
5748.7 95.483
5749.400000000001 95.506
5750.0 95.161
5750.700000000001 95.408
5751.4 95.542
5752.1 95.254
5752.799999999999 95.448
5753.400000000001 95.301
5754.099999999999 95.255
5754.8 95.638
5755.5 95.489
5756.2 95.772
5756.799999999999 95.794
5757.5 95.812
5758.200000000001 95.448
5758.9 95.321
5759.5 95.524
5760.2 95.509
5760.900000000001 95.26
5761.599999999999 95.246
5762.3 95.566
5762.9 94.998
5763.6 95.97
5764.299999999999 95.237
5765.0 95.582
5765.599999999999 95.562
5766.3 95.288
5767.0 95.267
5767.7 94.876
5768.400000000001 94.86
5769.0 95.307
5769.700000000001 95.233
5770.4 95.027
5771.1 95.112
5771.7 94.995
5772.4 95.212
5773.099999999999 95.498
5773.8 95.011
5774.400000000001 94.81
5775.1 94.523
5775.8 94.814
5776.5 94.719
5777.1 94.848
5777.799999999999 94.549
5778.5 94.949
5779.2 95.295
5779.8 94.237
5780.5 94.706
5781.2 94.45
5781.900000000001 94.429
5782.5 94.693
5783.200000000001 94.305
5783.9 94.266
5784.6 94.56
5785.2 94.592
5785.900000000001 94.362
5786.599999999999 94.04
5787.3 94.151
5787.9 94.302
5788.6 94.108
5789.299999999999 94.267
5790.0 93.982
5790.599999999999 94.064
5791.3 94.078
5792.0 94.032
5792.6 93.84
5793.3 94.12
5794.0 94.187
5794.700000000001 94.115
5795.299999999999 94.023
5796.0 93.704
5796.7 94.115
5797.3 93.799
5798.0 93.759
5798.7 93.722
5799.400000000001 93.694
5800.0 93.636
5800.700000000001 93.761
5801.4 93.419
5802.0 93.9
5802.7 93.932
5803.400000000001 93.586
5804.099999999999 93.57
5804.700000000001 93.882
5805.4 93.892
5806.1 93.808
5806.7 93.723
5807.4 93.651
5808.099999999999 93.776
5808.8 93.643
5809.400000000001 93.328
5810.1 93.618
5810.8 93.953
5811.4 94.216
5812.1 93.4
5812.799999999999 93.747
5813.400000000001 93.579
5814.099999999999 93.55
5814.8 93.474
5815.4 93.377
5816.1 93.553
5816.799999999999 93.417
5817.5 93.385
5818.099999999999 93.573
5818.8 93.289
5819.5 93.265
5820.1 93.599
5820.8 93.183
5821.5 93.236
5822.1 93.616
5822.799999999999 93.486
5823.5 93.294
5824.099999999999 93.637
5824.8 93.374
5825.5 93.257
5826.1 92.953
5826.799999999999 93.317
5827.5 93.388
5828.099999999999 93.28
5828.8 93.366
5829.5 93.17
5830.1 93.703
5830.8 93.007
5831.5 93.559
5832.1 93.587
5832.799999999999 93.564
5833.5 93.322
5834.099999999999 93.471
5834.8 93.364
5835.5 93.46
5836.1 93.25
5836.799999999999 93.091
5837.4 93.308
5838.099999999999 93.265
5838.8 93.15
5839.400000000001 93.042
5840.1 93.192
5840.8 93.272
5841.4 93.069
5842.1 93.131
5842.799999999999 93.381
5843.400000000001 93.215
5844.099999999999 93.026
5844.8 93.179
5845.4 93.0
5846.1 93.306
5846.7 92.767
5847.4 93.195
5848.099999999999 92.9
5848.7 92.9
5849.400000000001 92.9
5850.1 93.041
5850.700000000001 93.008
5851.4 92.975
5852.0 93.086
5852.7 92.848
5853.400000000001 92.906
5854.0 92.892
5854.700000000001 93.03
5855.299999999999 92.789
5856.0 92.939
5856.7 93.193
5857.3 92.745
5858.0 92.928
5858.7 92.545
5859.299999999999 92.838
5860.0 92.743
5860.599999999999 93.008
5861.3 93.065
5862.0 92.746
5862.6 92.795
5863.3 92.939
5863.9 92.96
5864.6 92.907
5865.299999999999 92.762
5865.900000000001 93.136
5866.599999999999 92.813
5867.200000000001 92.992
5867.9 92.754
5868.6 93.422
5869.2 93.032
5869.9 93.019
5870.5 92.765
5871.2 92.604
5871.799999999999 92.929
5872.5 92.91
5873.200000000001 92.696
5873.8 93.058
5874.5 93.209
5875.1 92.799
5875.8 92.85
5876.4 92.966
5877.1 93.255
5877.799999999999 93.128
5878.400000000001 92.877
5879.099999999999 93.059
5879.700000000001 93.091
5880.4 92.912
5881.0 93.275
5881.7 93.269
5882.4 93.281
5883.0 93.513
5883.7 93.22
5884.299999999999 93.417
5885.0 93.292
5885.599999999999 93.578
5886.3 93.582
5886.900000000001 93.583
5887.6 93.456
5888.3 93.516
5888.9 93.771
5889.6 93.752
5890.2 93.748
5890.900000000001 93.421
5891.5 93.805
5892.200000000001 93.754
5892.799999999999 94.049
5893.5 93.834
5894.099999999999 93.931
5894.8 94.182
5895.5 94.182
5896.1 94.26
5896.799999999999 94.431
5897.4 94.316
5898.099999999999 94.261
5898.7 94.549
5899.400000000001 94.652
5900.0 94.813
5900.700000000001 94.744
5901.3 94.789
5902.0 94.792
5902.6 95.212
5903.3 94.8
5903.9 95.051
5904.6 94.413
5905.2 94.92
5905.900000000001 94.73
5906.5 94.683
5907.200000000001 94.966
5907.799999999999 95.25
5908.5 95.409
5909.099999999999 95.182
5909.8 95.181
5910.4 95.285
5911.1 95.516
5911.7 95.377
5912.4 95.573
5913.0 95.413
5913.7 95.343
5914.299999999999 95.438
5915.0 95.539
5915.599999999999 95.437
5916.3 95.899
5916.900000000001 95.938
5917.6 95.473
5918.200000000001 95.869
5918.9 95.753
5919.5 96.058
5920.2 95.697
5920.8 95.868
5921.5 96.016
5922.1 95.829
5922.799999999999 96.084
5923.400000000001 96.191
5924.099999999999 96.033
5924.700000000001 96.16
5925.4 96.267
5926.0 96.053
5926.7 96.089
5927.3 96.2
5928.0 96.232
5928.6 96.219
5929.2 96.471
5929.9 96.059
5930.5 96.362
5931.2 96.403
5931.799999999999 96.181
5932.5 96.057
5933.099999999999 96.341
5933.8 96.191
5934.400000000001 96.601
5935.1 96.443
5935.700000000001 96.094
5936.4 96.584
5937.0 96.389
5937.6 96.641
5938.3 96.582
5938.9 96.581
5939.6 96.552
5940.2 96.21
5940.900000000001 96.539
5941.5 96.489
5942.1 96.447
5942.799999999999 96.789
5943.400000000001 96.314
5944.099999999999 96.073
5944.700000000001 96.677
5945.4 96.386
5946.0 96.579
5946.7 96.295
5947.3 96.235
5947.9 96.309
5948.6 96.569
5949.2 96.238
5949.9 96.568
5950.5 96.498
5951.1 96.552
5951.799999999999 96.402
5952.4 96.514
5953.099999999999 96.602
5953.7 96.46
5954.400000000001 96.731
5955.0 96.072
5955.599999999999 96.365
5956.3 96.325
5956.900000000001 96.492
5957.6 96.247
5958.200000000001 96.212
5958.8 96.259
5959.5 96.302
5960.1 96.127
5960.8 96.338
5961.4 95.984
5962.0 96.366
5962.7 96.255
5963.3 96.256
5964.0 96.367
5964.6 96.147
5965.2 95.937
5965.900000000001 96.33
5966.5 96.361
5967.1 96.288
5967.799999999999 96.106
5968.400000000001 96.044
5969.099999999999 96.309
5969.700000000001 96.169
5970.299999999999 96.285
5971.0 96.278
5971.599999999999 96.222
5972.200000000001 95.868
5972.9 96.508
5973.5 96.28
5974.2 96.305
5974.8 95.885
5975.4 96.222
5976.1 96.14
5976.7 96.245
5977.3 96.185
5978.0 95.98
5978.6 95.806
5979.2 96.309
5979.9 95.975
5980.5 95.766
5981.1 95.958
5981.799999999999 96.082
5982.4 96.05
5983.099999999999 95.859
5983.7 96.018
5984.299999999999 95.724
5985.0 96.012
5985.599999999999 96.336
5986.2 96.024
5986.900000000001 95.962
5987.5 96.009
5988.099999999999 95.839
5988.8 96.042
5989.400000000001 96.113
5990.0 95.922
5990.700000000001 96.399
5991.3 96.079
5991.900000000001 96.187
5992.6 95.869
5993.200000000001 96.162
5993.8 95.915
5994.5 96.309
5995.1 96.03
5995.700000000001 95.831
5996.3 96.275
5997.0 95.863
5997.6 96.164
5998.200000000001 96.012
5998.9 96.536
5999.5 95.942
6000.1 96.17
6000.8 95.982
6001.4 95.923
6002.0 96.232
6002.7 96.135
6003.3 96.289
6003.9 95.872
6004.5 96.131
6005.2 96.22
6005.8 96.175
6006.4 95.897
6007.1 96.272
6007.7 95.825
6008.3 96.315
6008.9 96.146
6009.6 96.361
6010.2 96.031
6010.8 96.318
6011.5 95.681
6012.1 96.053
6012.7 95.983
6013.3 96.176
6014.0 96.285
6014.6 96.084
6015.2 96.607
6015.8 96.009
6016.5 96.169
6017.1 96.3
6017.7 95.948
6018.400000000001 96.14
6019.0 96.315
6019.6 96.2
6020.2 96.163
6020.900000000001 96.186
6021.5 96.294
6022.1 95.912
6022.7 95.796
6023.400000000001 96.049
6024.0 96.205
6024.6 96.057
6025.2 95.857
6025.900000000001 95.993
6026.5 95.598
6027.1 96.02
6027.7 95.69
6028.400000000001 96.03
6029.0 95.709
6029.6 95.719
6030.2 95.68
6030.8 96.112
6031.5 95.554
6032.1 95.569
6032.7 95.792
6033.3 95.363
6034.0 95.557
6034.6 95.926
6035.2 95.653
6035.8 95.661
6036.5 95.44
6037.1 95.653
6037.7 95.602
6038.3 95.467
6038.9 95.587
6039.6 95.706
6040.2 95.65
6040.8 95.164
6041.4 95.438
6042.0 94.972
6042.7 95.187
6043.3 95.267
6043.9 95.478
6044.5 95.194
6045.1 95.156
6045.8 94.613
6046.4 94.617
6047.0 95.043
6047.6 94.982
6048.200000000001 94.73
6048.9 94.8
6049.5 94.487
6050.1 94.607
6050.700000000001 94.71
6051.3 94.511
6051.900000000001 94.461
6052.6 94.659
6053.200000000001 94.26
6053.8 94.526
6054.400000000001 94.32
6055.0 94.286
6055.700000000001 94.318
6056.3 94.354
6056.900000000001 94.2
6057.5 93.967
6058.099999999999 93.896
6058.7 94.068
6059.400000000001 94.168
6060.0 93.948
6060.599999999999 93.659
6061.2 93.834
6061.799999999999 93.972
6062.4 93.997
6063.0 93.37
6063.7 93.841
6064.299999999999 93.374
6064.9 93.48
6065.5 93.663
6066.1 93.204
6066.7 93.207
6067.3 93.769
6068.0 92.937
6068.6 93.447
6069.2 93.261
6069.8 93.414
6070.4 93.105
6071.0 93.196
6071.599999999999 92.95
6072.3 93.144
6072.9 93.078
6073.5 93.046
6074.099999999999 93.128
6074.700000000001 92.969
6075.299999999999 93.392
6075.900000000001 92.904
6076.5 93.058
6077.1 92.709
6077.799999999999 92.795
6078.400000000001 92.478
6079.0 92.634
6079.6 93.142
6080.2 92.303
6080.8 92.773
6081.4 92.673
6082.0 92.552
6082.6 92.717
6083.3 92.669
6083.9 92.814
6084.5 92.585
6085.1 92.448
6085.700000000001 92.736
6086.3 92.77
6086.900000000001 92.565
6087.5 92.232
6088.099999999999 92.737
6088.7 92.528
6089.299999999999 92.624
6090.0 92.486
6090.599999999999 92.658
6091.2 92.741
6091.799999999999 92.73
6092.4 92.491
6093.0 92.479
6093.6 92.668
6094.2 92.38
6094.8 92.437
6095.4 92.607
6096.0 92.186
6096.599999999999 92.671
6097.200000000001 92.483
6097.799999999999 92.335
6098.5 92.609
6099.099999999999 92.326
6099.700000000001 92.806
6100.299999999999 92.429
6100.900000000001 92.725
6101.5 92.428
6102.1 92.515
6102.7 92.687
6103.3 92.732
6103.9 92.556
6104.5 92.609
6105.1 92.955
6105.700000000001 92.703
6106.3 93.001
6106.900000000001 92.739
6107.5 92.865
6108.099999999999 92.875
6108.7 92.811
6109.299999999999 92.844
6109.9 93.363
6110.5 92.876
6111.1 93.086
6111.7 92.92
6112.3 93.208
6112.9 93.332
6113.5 93.125
6114.099999999999 93.07
6114.700000000001 93.418
6115.299999999999 93.436
6115.900000000001 92.882
6116.599999999999 93.351
6117.200000000001 93.336
6117.799999999999 93.285
6118.400000000001 93.606
6119.0 93.745
6119.6 93.702
6120.2 93.778
6120.8 93.391
6121.4 93.369
6122.0 93.639
6122.6 93.491
6123.099999999999 93.482
6123.7 93.53
6124.299999999999 93.973
6124.9 93.928
6125.5 93.947
6126.1 94.12
6126.7 93.981
6127.3 94.3
6127.9 94.437
6128.6 94.326
6129.299999999999 94.653
6129.9 94.319
6130.599999999999 94.757
6131.2 94.61
6131.900000000001 94.659
6132.6 94.953
6133.200000000001 94.767
6133.9 94.946
6134.5 94.81
6135.2 94.839
6135.8 95.076
6136.5 95.071
6137.1 94.879
6137.799999999999 95.226
6138.5 95.288
6139.099999999999 95.068
6139.8 95.187
6140.4 95.565
6141.1 95.232
6141.7 95.444
6142.4 95.43
6143.099999999999 95.479
6143.7 95.011
6144.400000000001 95.037
6145.0 95.384
6145.700000000001 95.718
6146.3 95.477
6147.0 95.382
6147.6 95.504
6148.3 95.814
6149.0 95.447
6149.6 95.74
6150.299999999999 95.897
6150.900000000001 95.41
6151.599999999999 95.46
6152.200000000001 95.675
6152.9 96.081
6153.5 95.764
6154.2 95.498
6154.8 95.794
6155.5 95.761
6156.2 96.113
6156.799999999999 96.188
6157.5 95.839
6158.099999999999 96.118
6158.8 96.11
6159.400000000001 96.097
6160.1 96.007
6160.700000000001 95.937
6161.4 96.146
6162.0 95.963
6162.7 96.24
6163.3 96.067
6164.0 96.336
6164.6 96.27
6165.299999999999 95.797
6165.900000000001 96.053
6166.599999999999 95.867
6167.3 96.187
6167.9 96.271
6168.6 96.356
6169.2 96.16
6169.9 96.311
6170.5 96.239
6171.2 96.312
6171.799999999999 96.231
6172.5 96.04
6173.099999999999 96.282
6173.8 96.186
6174.400000000001 96.311
6175.1 96.236
6175.700000000001 96.172
6176.4 96.485
6177.0 96.492
6177.7 96.296
6178.3 96.208
6179.0 95.985
6179.6 96.462
6180.299999999999 96.341
6180.900000000001 96.317
6181.599999999999 96.409
6182.200000000001 96.258
6182.9 96.363
6183.5 95.755
6184.2 96.309
6184.8 96.088
6185.5 96.013
6186.1 96.141
6186.799999999999 95.995
6187.4 96.418
6188.099999999999 96.152
6188.7 95.99
6189.400000000001 96.392
6190.0 95.855
6190.700000000001 96.12
6191.3 96.309
6192.0 96.185
6192.6 95.902
6193.3 95.73
6193.9 95.889
6194.6 95.669
6195.2 95.86
6195.900000000001 95.959
6196.5 96.106
6197.200000000001 95.746
6197.799999999999 95.602
6198.5 95.936
6199.099999999999 96.017
6199.8 95.936
6200.4 95.896
6201.1 95.755
6201.7 95.886
6202.3 95.412
6203.0 95.759
6203.6 95.751
6204.299999999999 95.856
6204.9 95.923
6205.599999999999 95.641
6206.2 95.501
6206.900000000001 95.601
6207.5 95.46
6208.200000000001 95.229
6208.8 95.298
6209.5 95.22
6210.1 95.678
6210.8 95.789
6211.4 95.571
6212.0 95.049
6212.7 95.709
6213.3 95.088
6214.0 95.15
6214.6 95.176
6215.299999999999 95.391
6215.900000000001 95.034
6216.599999999999 95.074
6217.200000000001 94.776
6217.9 94.697
6218.5 94.896
6219.099999999999 94.908
6219.8 94.968
6220.4 95.348
6221.1 94.786
6221.7 94.254
6222.4 94.859
6223.0 93.987
6223.7 94.597
6224.299999999999 94.538
6224.9 94.38
6225.599999999999 94.496
6226.2 94.291
6226.900000000001 94.441
6227.5 94.605
6228.200000000001 94.1
6228.8 94.244
6229.400000000001 93.96
6230.1 93.93
6230.700000000001 93.998
6231.4 93.56
6232.0 93.982
6232.7 93.346
6233.3 93.53
6233.9 93.598
6234.6 93.851
6235.2 93.78
6235.900000000001 93.858
6236.5 93.561
6237.200000000001 93.525
6237.799999999999 93.298
6238.400000000001 93.178
6239.099999999999 92.845
6239.700000000001 93.255
6240.4 92.672
6241.0 92.865
6241.599999999999 93.411
6242.3 93.286
6242.9 93.209
6243.6 92.608
6244.2 92.952
6244.9 92.74
6245.5 92.522
6246.1 92.682
6246.799999999999 92.357
6247.4 92.686
6248.099999999999 92.479
6248.7 92.35
6249.299999999999 92.213
6250.0 92.11
6250.599999999999 92.08
6251.3 91.885
6251.900000000001 92.12
6252.5 92.405
6253.200000000001 92.211
6253.8 91.857
6254.5 91.621
6255.1 91.472
6255.700000000001 91.645
6256.4 91.421
6257.0 91.471
6257.6 91.484
6258.3 91.485
6258.9 91.203
6259.6 91.174
6260.2 91.228
6260.8 91.281
6261.5 91.361
6262.1 91.032
6262.7 90.931
6263.400000000001 91.2
6264.0 90.746
6264.700000000001 90.901
6265.299999999999 90.811
6265.900000000001 90.353
6266.599999999999 90.535
6267.200000000001 90.601
6267.799999999999 90.37
6268.5 90.502
6269.099999999999 90.4
6269.8 90.076
6270.4 90.585
6271.0 90.156
6271.7 90.844
6272.3 90.681
6272.9 90.342
6273.6 90.08
6274.2 89.842
6274.8 90.172
6275.5 90.337
6276.1 89.998
6276.799999999999 90.18
6277.4 90.27
6278.0 89.898
6278.7 89.859
6279.299999999999 90.069
6279.9 89.873
6280.599999999999 89.436
6281.2 90.064
6281.799999999999 89.976
6282.5 89.671
6283.099999999999 89.691
6283.7 90.037
6284.400000000001 89.518
6285.0 89.721
6285.599999999999 89.909
6286.3 90.029
6286.900000000001 89.706
6287.5 89.836
6288.200000000001 89.744
6288.8 89.61
6289.400000000001 89.435
6290.1 89.831
6290.700000000001 89.433
6291.3 89.632
6292.0 89.573
6292.6 89.77
6293.200000000001 89.599
6293.9 89.849
6294.5 89.601
6295.1 89.456
6295.8 89.638
6296.4 89.615
6297.0 89.822
6297.7 89.735
6298.3 89.693
6298.9 89.709
6299.6 89.707
6300.2 89.759
6300.8 89.717
6301.4 89.67
6302.1 89.598
6302.7 89.692
6303.3 90.038
6304.0 89.966
6304.6 89.674
6305.2 89.873
6305.900000000001 89.847
6306.5 89.587
6307.1 89.895
6307.7 89.958
6308.400000000001 89.932
6309.0 89.828
6309.6 90.228
6310.299999999999 90.135
6310.900000000001 90.169
6311.5 90.373
6312.200000000001 90.517
6312.799999999999 90.06
6313.400000000001 90.251
6314.0 90.238
6314.700000000001 90.233
6315.299999999999 90.137
6315.900000000001 90.35
6316.599999999999 90.392
6317.200000000001 90.781
6317.799999999999 90.434
6318.400000000001 90.309
6319.099999999999 90.804
6319.700000000001 90.794
6320.299999999999 90.615
6320.900000000001 90.422
6321.599999999999 90.782
6322.200000000001 90.718
6322.799999999999 90.847
6323.5 90.933
6324.099999999999 90.922
6324.700000000001 90.878
6325.299999999999 90.706
6326.0 91.072
6326.599999999999 91.02
6327.200000000001 91.081
6327.799999999999 90.978
6328.5 91.252
6329.099999999999 91.482
6329.700000000001 91.375
6330.299999999999 91.269
6331.0 91.539
6331.599999999999 91.677
6332.200000000001 91.899
6332.799999999999 91.895
6333.5 91.87
6334.099999999999 92.027
6334.700000000001 91.679
6335.299999999999 92.114
6336.0 91.861
6336.599999999999 92.092
6337.200000000001 92.038
6337.799999999999 92.132
6338.5 92.184
6339.099999999999 92.375
6339.700000000001 92.388
6340.299999999999 92.786
6341.0 91.993
6341.599999999999 92.672
6342.200000000001 92.496
6342.799999999999 92.824
6343.5 92.352
6344.099999999999 92.516
6344.700000000001 92.561
6345.299999999999 92.563
6346.0 92.603
6346.599999999999 92.646
6347.200000000001 92.757
6347.799999999999 92.991
6348.400000000001 93.334
6349.099999999999 93.395
6349.700000000001 93.145
6350.299999999999 93.269
6350.900000000001 93.08
6351.5 93.235
6352.200000000001 94.934
6352.799999999999 93.154
6353.400000000001 93.356
6354.0 93.5
6354.700000000001 93.493
6355.299999999999 93.597
6355.900000000001 93.183
6356.5 93.433
6357.1 93.239
6357.799999999999 93.396
6358.400000000001 93.689
6359.0 93.48
6359.6 93.969
6360.2 93.368
6360.900000000001 93.982
6361.5 94.081
6362.1 94.02
6362.7 93.823
6363.3 93.99
6364.0 94.008
6364.6 94.115
6365.2 93.972
6365.8 93.674
6366.4 94.337
6367.1 94.243
6367.7 94.118
6368.3 94.431
6368.9 94.132
6369.5 94.499
6370.1 94.239
6370.8 94.498
6371.4 94.669
6372.0 94.453
6372.6 94.448
6373.200000000001 94.618
6373.8 94.75
6374.5 94.359
6375.1 94.339
6375.700000000001 94.538
6376.3 94.266
6376.900000000001 94.644
6377.5 94.629
6378.200000000001 94.708
6378.8 94.668
6379.400000000001 94.479
6380.0 94.918
6380.599999999999 94.71
6381.2 94.586
6381.900000000001 94.441
6382.5 94.661
6383.099999999999 94.744
6383.7 94.723
6384.299999999999 94.882
6384.9 94.939
6385.5 94.444
6386.2 94.746
6386.799999999999 94.601
6387.4 94.666
6388.0 94.888
6388.6 94.842
6389.2 94.621
6389.8 94.912
6390.700000000001 94.986
6391.4 95.035
6392.0 94.673
6392.6 94.459
6393.3 94.694
6393.9 95.139
6394.5 95.076
6395.2 94.454
6395.8 94.924
6396.4 94.983
6397.1 94.897
6397.7 94.883
6398.3 94.63
6399.0 94.989
6399.6 95.06
6400.2 94.881
6400.900000000001 95.036
6401.5 94.503
6402.1 94.969
6402.799999999999 95.137
6403.400000000001 94.58
6404.0 94.509
6404.700000000001 94.877
6405.299999999999 94.35
6405.900000000001 94.829
6406.5 94.627
6407.200000000001 94.538
6407.799999999999 94.94
6408.400000000001 94.542
6409.099999999999 94.616
6409.700000000001 94.425
6410.299999999999 94.686
6411.0 94.7
6411.599999999999 94.73
6412.200000000001 94.921
6412.9 95.028
6413.5 94.857
6414.099999999999 94.75
6414.700000000001 94.903
6415.4 94.556
6416.0 94.542
6416.599999999999 94.716
6417.3 94.576
6417.9 94.727
6418.5 94.514
6419.099999999999 94.699
6419.8 94.76
6420.4 94.74
6421.0 94.611
6421.7 94.735
6422.3 94.89
6422.9 94.862
6423.5 94.724
6424.2 95.2
6424.8 94.524
6425.4 94.867
6426.1 94.484
6426.7 94.817
6427.3 94.423
6427.9 95.059
6428.6 94.912
6429.2 94.705
6429.8 94.913
6430.4 94.724
6431.1 94.768
6431.7 94.768
6432.3 94.996
6433.0 94.681
6433.6 94.539
6434.2 95.042
6434.8 94.888
6435.5 94.744
6436.1 95.034
6436.7 94.746
6437.3 95.057
6438.0 95.038
6438.6 94.745
6439.2 94.918
6439.8 95.148
6440.5 95.398
6441.1 94.964
6441.7 95.097
6442.3 94.888
6443.0 94.825
6443.6 94.925
6444.2 95.149
6444.8 94.844
6445.5 94.851
6446.1 95.222
6446.7 94.897
6447.3 95.012
6448.0 94.939
6448.6 95.305
6449.2 95.047
6449.8 95.323
6450.5 94.885
6451.1 95.234
6451.7 95.443
6452.3 94.927
6453.0 95.561
6453.6 94.782
6454.2 95.183
6454.8 95.202
6455.5 95.285
6456.1 95.465
6456.7 95.26
6457.3 95.434
6457.9 95.465
6458.6 95.654
6459.2 95.2
6459.8 95.341
6460.4 95.261
6461.1 95.239
6461.7 95.511
6462.3 95.389
6462.9 95.721
6463.5 95.654
6464.2 95.452
6464.8 95.546
6465.4 95.34
6466.0 95.444
6466.7 95.709
6467.3 95.483
6467.9 95.377
6468.5 95.537
6469.099999999999 95.687
6469.8 95.538
6470.4 95.643
6471.0 95.841
6471.599999999999 95.641
6472.200000000001 95.677
6472.9 95.51
6473.5 95.657
6474.099999999999 95.683
6474.700000000001 95.557
6475.299999999999 95.62
6476.0 95.463
6476.599999999999 95.383
6477.200000000001 96.24
6477.799999999999 96.021
6478.400000000001 96.1
6479.099999999999 95.785
6479.700000000001 96.15
6480.299999999999 96.058
6480.900000000001 96.369
6481.5 95.864
6482.200000000001 95.701
6482.799999999999 95.869
6483.400000000001 95.966
6484.0 95.941
6484.6 96.072
6485.2 95.939
6485.900000000001 96.348
6486.5 96.202
6487.1 96.141
6487.7 96.089
6488.3 95.921
6489.0 95.826
6489.6 96.166
6490.2 96.479
6490.8 96.229
6491.4 96.093
6492.0 96.312
6492.7 96.306
6493.3 96.227
6493.9 96.241
6494.5 96.011
6495.1 96.449
6495.700000000001 96.273
6496.4 96.107
6497.0 95.852
6497.6 96.273
6498.200000000001 96.181
6498.8 96.348
6499.400000000001 96.17
6500.0 96.312
6500.700000000001 96.415
6501.3 95.922
6501.900000000001 95.972
6502.5 96.467
6503.099999999999 96.658
6503.7 96.293
6504.400000000001 96.487
6505.0 96.5
6505.599999999999 96.623
6506.2 96.383
6506.799999999999 96.539
6507.4 96.103
6508.0 96.427
6508.7 96.156
6509.299999999999 96.269
6509.9 96.027
6510.5 96.579
6511.1 96.314
6511.7 96.413
6512.3 96.595
6512.9 96.141
6513.6 96.263
6514.2 96.507
6514.8 96.404
6515.4 96.348
6516.0 96.223
6516.599999999999 96.534
6517.200000000001 96.829
6517.9 96.293
6518.5 96.208
6519.099999999999 96.282
6519.700000000001 96.427
6520.299999999999 96.549
6520.900000000001 96.302
6521.5 96.11
6522.1 96.558
6522.7 96.266
6523.400000000001 96.067
6524.0 96.155
6524.6 96.358
6525.2 96.496
6525.8 96.55
6526.4 96.191
6527.0 96.713
6527.6 96.182
6528.200000000001 96.371
6528.9 96.108
6529.5 96.375
6530.1 96.421
6530.700000000001 96.713
6531.3 96.414
6531.900000000001 96.206
6532.5 96.229
6533.099999999999 96.676
6533.7 96.408
6534.299999999999 96.038
6535.0 96.293
6535.599999999999 96.027
6536.2 96.492
6536.799999999999 96.301
6537.4 96.548
6538.0 96.61
6538.6 96.686
6539.2 96.629
6539.8 95.953
6540.4 96.329
6541.0 96.581
6541.599999999999 96.644
6542.3 96.207
6542.9 96.49
6543.5 96.401
6544.099999999999 96.576
6544.700000000001 96.621
6545.299999999999 96.656
6545.900000000001 96.539
6546.5 95.949
6547.1 96.575
6547.7 96.49
6548.3 96.603
6548.9 96.742
6549.5 96.508
6550.1 96.768
6550.700000000001 96.455
6551.4 96.432
6552.0 96.39
6552.6 96.283
6553.200000000001 96.52
6553.8 96.613
6554.400000000001 96.712
6555.0 96.459
6555.599999999999 95.939
6556.2 96.559
6556.799999999999 96.348
6557.4 96.557
6558.0 96.608
6558.6 96.378
6559.2 96.657
6559.8 96.267
6560.4 96.479
6561.0 96.4
6561.599999999999 96.39
6562.200000000001 96.39
6562.799999999999 96.692
6563.400000000001 96.566
6564.099999999999 96.462
6564.700000000001 96.377
6565.299999999999 96.289
6565.900000000001 96.257
6566.5 96.462
6567.1 96.335
6567.7 96.55
6568.3 96.077
6568.9 96.55
6569.5 96.429
6570.1 96.766
6570.700000000001 96.698
6571.3 96.708
6571.900000000001 96.496
6572.5 96.861
6573.099999999999 96.657
6573.7 96.816
6574.299999999999 96.665
6574.9 96.551
6575.5 96.358
6576.1 96.853
6576.7 96.673
6577.3 96.5
6577.9 96.337
6578.5 96.575
6579.099999999999 96.463
6579.700000000001 96.817
6580.299999999999 96.583
6580.900000000001 96.482
6581.5 96.762
6582.1 96.504
6582.7 96.879
6583.3 96.422
6583.9 96.693
6584.5 96.704
6585.1 96.481
6585.700000000001 96.627
6586.3 96.57
6586.900000000001 96.707
6587.5 96.768
6588.099999999999 96.637
6588.7 96.805
6589.299999999999 96.639
6589.9 96.661
6590.5 96.77
6591.1 96.829
6591.7 96.787
6592.3 96.563
6592.9 96.406
6593.5 96.533
6594.099999999999 96.599
6594.700000000001 96.592
6595.299999999999 96.147
6595.900000000001 96.399
6596.5 96.563
6597.1 96.809
6597.7 96.975
6598.200000000001 96.419
6598.8 96.674
6599.400000000001 96.452
6600.0 96.557
6600.599999999999 96.875
6601.2 96.399
6601.799999999999 96.606
6602.4 96.548
6603.0 96.995
6603.6 96.465
6604.2 96.556
6604.8 96.75
6605.4 96.698
6606.0 96.522
6606.599999999999 96.682
6607.200000000001 96.485
6607.799999999999 96.411
6608.400000000001 96.535
6609.0 96.571
6609.6 96.777
6610.2 96.081
6610.700000000001 96.548
6611.3 96.747
6611.900000000001 96.336
6612.5 96.476
6613.099999999999 96.543
6613.7 96.671
6614.299999999999 96.31
6614.9 96.492
6615.5 96.312
6616.1 96.505
6616.7 96.546
6617.3 96.686
6617.9 96.425
6618.5 96.569
6619.0 96.518
6619.6 96.475
6620.2 96.237
6620.8 96.655
6621.4 96.243
6622.0 96.257
6622.6 96.39
6623.200000000001 96.361
6623.8 96.39
6624.400000000001 96.26
6625.0 96.232
6625.599999999999 96.541
6626.1 96.629
6626.7 96.615
6627.3 96.809
6627.9 96.56
6628.5 96.715
6629.099999999999 96.502
6629.700000000001 96.457
6630.299999999999 96.468
6630.900000000001 96.523
6631.4 96.444
6632.0 96.363
6632.6 96.328
6633.200000000001 96.433
6633.8 96.136
6634.400000000001 96.593
6635.0 96.474
6635.599999999999 96.309
6636.2 96.462
6636.7 96.327
6637.3 96.441
6637.9 96.228
6638.5 96.313
6639.099999999999 96.076
6639.700000000001 96.369
6640.299999999999 96.298
6640.900000000001 96.542
6641.4 96.413
6642.0 96.345
6642.6 96.192
6643.200000000001 95.968
6643.8 96.407
6644.400000000001 96.475
6645.0 96.619
6645.599999999999 96.277
6646.1 96.483
6646.7 96.048
6647.3 96.19
6647.9 96.669
6648.5 96.199
6649.099999999999 96.325
6649.700000000001 96.266
6650.2 96.156
6650.8 96.436
6651.4 96.356
6652.0 95.953
6652.6 95.958
6653.200000000001 96.203
6653.7 96.216
6654.299999999999 96.46
6654.9 96.193
6655.5 96.257
6656.1 96.654
6656.7 96.046
6657.200000000001 96.557
6657.799999999999 96.02
6658.400000000001 96.257
6659.0 96.26
6659.6 96.404
6660.2 96.171
6660.700000000001 96.302
6661.3 96.092
6661.900000000001 96.335
6662.5 96.206
6663.099999999999 96.343
6663.7 96.037
6664.2 96.132
6664.8 96.032
6665.4 95.882
6666.0 96.334
6666.599999999999 95.901
6667.1 96.686
6667.7 96.285
6668.3 96.147
6668.9 96.041
6669.5 95.975
6670.0 96.374
6670.599999999999 96.308
6671.2 96.621
6671.799999999999 96.277
6672.4 96.302
6672.9 96.375
6673.5 96.504
6674.099999999999 96.079
6674.700000000001 96.243
6675.299999999999 96.244
6675.8 96.348
6676.4 96.181
6677.0 96.344
6677.6 96.406
6678.200000000001 95.865
6678.7 95.99
6679.299999999999 96.322
6679.9 96.386
6680.5 96.452
6681.0 96.125
6681.599999999999 96.681
6682.200000000001 96.17
6682.799999999999 96.18
6683.400000000001 96.376
6683.9 95.931
6684.5 96.295
6685.1 95.996
6685.700000000001 96.336
6686.2 96.24
6686.799999999999 96.362
6687.4 96.294
6688.0 96.209
6688.5 96.221
6689.099999999999 96.244
6689.700000000001 96.081
6690.299999999999 96.676
6690.8 96.192
6691.4 96.681
6692.0 96.152
6692.6 96.079
6693.099999999999 96.824
6693.7 96.277
6694.299999999999 96.19
6694.9 96.055
6695.4 96.053
6696.0 96.529
6696.599999999999 96.348
6697.200000000001 96.619
6697.7 96.298
6698.3 96.152
6698.9 96.493
6699.5 96.305
6700.0 96.247
6700.599999999999 96.458
6701.2 96.483
6701.799999999999 96.639
6702.3 96.15
6702.9 96.356
6703.5 96.172
6704.0 96.55
6704.6 96.366
6705.2 96.593
6705.8 96.615
6706.3 96.416
6706.900000000001 96.696
6707.5 96.237
6708.0 96.131
6708.6 96.483
6709.2 96.589
6709.8 96.508
6710.299999999999 96.404
6710.900000000001 96.613
6711.5 96.298
6712.0 96.401
6712.6 96.188
6713.200000000001 96.224
6713.7 96.46
6714.299999999999 96.307
6714.9 96.621
6715.5 96.64
6716.0 96.08
6716.599999999999 96.621
6717.200000000001 96.195
6717.7 96.556
6718.3 96.539
6718.9 95.993
6719.400000000001 96.466
6720.0 96.355
6720.599999999999 96.426
6721.1 96.329
6721.7 96.32
6722.3 96.275
6722.799999999999 96.301
6723.400000000001 96.279
6724.0 96.415
6724.5 96.264
6725.1 96.338
6725.700000000001 95.95
6726.2 96.235
6726.799999999999 96.453
6727.4 96.116
6727.9 96.17
6728.5 96.355
6729.099999999999 96.647
6729.6 96.343
6730.2 96.556
6730.8 96.334
6731.3 95.939
6731.900000000001 96.183
6732.5 96.137
6733.0 96.463
6733.6 96.045
6734.2 96.187
6734.700000000001 96.169
6735.299999999999 96.067
6735.8 95.96
6736.4 95.92
6737.0 95.864
6737.5 96.297
6738.099999999999 95.936
6738.7 96.194
6739.2 96.024
6739.8 95.914
6740.4 95.899
6740.900000000001 96.278
6741.5 96.046
6742.0 95.878
6742.6 96.094
6743.200000000001 95.77
6743.7 96.182
6744.299999999999 96.363
6744.8 96.503
6745.4 96.023
6746.0 95.669
6746.5 96.119
6747.1 95.932
6747.7 95.953
6748.200000000001 96.111
6748.8 95.886
6749.299999999999 96.095
6749.9 95.755
6750.5 96.044
6751.0 95.923
6751.599999999999 95.911
6752.1 95.973
6752.7 95.864
6753.3 95.545
6753.8 95.773
6754.400000000001 96.044
6754.9 95.783
6755.5 95.993
6756.0 95.549
6756.599999999999 95.913
6757.200000000001 95.845
6757.7 95.742
6758.3 95.586
6758.8 95.757
6759.400000000001 96.05
6760.0 95.612
6760.5 96.079
6761.1 95.485
6761.599999999999 95.712
6762.200000000001 95.895
6762.7 95.813
6763.3 95.747
6763.9 96.139
6764.400000000001 95.508
6765.0 95.975
6765.5 95.265
6766.1 95.606
6766.599999999999 95.716
6767.200000000001 95.42
6767.7 95.791
6768.3 95.648
6768.9 95.518
6769.400000000001 95.387
6770.0 95.673
6770.5 95.585
6771.1 95.674
6771.599999999999 95.57
6772.200000000001 95.474
6772.7 95.627
6773.3 95.725
6773.8 95.601
6774.400000000001 95.748
6774.9 95.502
6775.5 95.571
6776.1 95.386
6776.599999999999 95.761
6777.200000000001 95.324
6777.7 95.343
6778.3 95.321
6778.8 95.415
6779.400000000001 95.398
6779.9 95.229
6780.5 95.53
6781.0 95.161
6781.599999999999 95.557
6782.1 96.023
6782.7 95.358
6783.200000000001 95.569
6783.8 95.172
6784.299999999999 95.567
6784.9 95.303
6785.4 95.202
6786.0 95.153
6786.5 95.623
6787.1 95.394
6787.6 95.654
6788.200000000001 95.271
6788.7 95.284
6789.299999999999 95.353
6789.8 95.325
6790.4 95.197
6790.900000000001 95.448
6791.5 95.467
6792.0 95.543
6792.6 95.415
6793.099999999999 95.328
6793.7 95.267
6794.2 95.304
6794.8 95.274
6795.299999999999 95.004
6795.900000000001 94.997
6796.4 95.416
6796.900000000001 95.567
6797.5 95.201
6798.0 95.172
6798.6 95.264
6799.099999999999 95.498
6799.700000000001 95.282
6800.2 95.301
6800.8 95.254
6801.3 95.376
6801.900000000001 95.189
6802.4 95.349
6803.0 95.729
6803.5 95.254
6804.0 95.234
6804.6 95.639
6805.1 95.247
6805.700000000001 95.33
6806.2 95.156
6806.799999999999 95.525
6807.3 95.099
6807.9 95.15
6808.400000000001 95.375
6808.9 95.513
6809.5 95.106
6810.0 95.143
6810.599999999999 95.394
6811.1 95.682
6811.7 94.984
6812.200000000001 95.569
6812.7 95.563
6813.3 95.469
6813.8 95.816
6814.400000000001 95.288
6814.9 95.458
6815.4 95.036
6816.0 95.441
6816.5 95.39
6817.1 95.228
6817.6 95.602
6818.200000000001 95.36
6818.7 95.32
6819.2 95.667
6819.8 95.492
6820.299999999999 95.439
6820.900000000001 95.48
6821.4 95.367
6821.900000000001 95.429
6822.5 95.354
6823.0 95.534
6823.6 95.29
6824.099999999999 95.652
6824.6 95.309
6825.2 95.468
6825.700000000001 95.436
6826.2 95.485
6826.799999999999 95.935
6827.3 95.549
6827.9 95.241
6828.400000000001 95.483
6828.9 95.364
6829.5 95.543
6830.0 95.703
6830.5 95.605
6831.1 95.699
6831.599999999999 95.594
6832.200000000001 95.443
6832.7 95.474
6833.200000000001 95.479
6833.8 95.714
6834.299999999999 95.779
6834.8 95.332
6835.4 95.565
6835.900000000001 95.604
6836.4 95.623
6837.0 95.609
6837.5 95.643
6838.0 95.655
6838.6 95.78
6839.099999999999 95.95
6839.6 95.65
6840.2 95.369
6840.700000000001 95.726
6841.3 95.471
6841.799999999999 96.119
6842.3 95.787
6842.9 96.225
6843.400000000001 96.026
6843.9 95.701
6844.400000000001 95.697
6845.0 95.793
6845.5 96.0
6846.0 96.007
6846.599999999999 95.923
6847.1 95.794
6847.6 95.752
6848.200000000001 96.141
6848.7 95.953
6849.2 96.07
6849.8 95.798
6850.299999999999 96.316
6850.8 95.939
6851.4 95.832
6851.900000000001 95.61
6852.4 95.796
6852.9 96.017
6853.5 95.913
6854.0 96.33
6854.5 96.445
6855.1 96.181
6855.599999999999 95.874
6856.1 96.236
6856.7 96.024
6857.200000000001 95.914
6857.7 95.791
6858.200000000001 95.939
6858.8 96.055
6859.299999999999 95.937
6859.8 95.814
6860.4 96.088
6860.900000000001 96.24
6861.4 96.222
6861.900000000001 95.869
6862.5 96.628
6863.0 95.909
6863.5 96.095
6864.0 95.871
6864.6 96.312
6865.1 96.306
6865.599999999999 96.178
6866.1 96.463
6866.5 96.001
6867.1 96.245
6867.7 95.967
6868.3 96.226
6868.9 96.338
6869.400000000001 96.299
6870.0 96.038
6870.599999999999 96.119
6871.2 95.96
6871.799999999999 95.999
6872.4 96.169
6872.9 96.213
6873.5 96.123
6874.099999999999 96.322
6874.700000000001 96.33
6875.299999999999 96.448
6875.900000000001 96.084
6876.4 96.437
6877.0 96.315
6877.6 96.312
6878.200000000001 96.064
6878.8 96.354
6879.400000000001 96.751
6879.9 96.445
6880.5 95.871
6881.1 96.208
6881.7 96.431
6882.3 96.1
6882.9 96.585
6883.400000000001 96.561
6884.0 96.057
6884.6 96.327
6885.2 96.316
6885.8 96.519
6886.4 96.403
6886.900000000001 96.417
6887.5 96.454
6888.099999999999 96.311
6888.7 96.215
6889.299999999999 96.479
6889.8 96.358
6890.4 96.636
6891.0 96.56
6891.599999999999 96.257
6892.200000000001 96.15
6892.799999999999 96.439
6893.3 96.521
6893.9 96.648
6894.5 96.132
6895.1 96.352
6895.700000000001 96.845
6896.2 96.14
6896.799999999999 96.552
6897.4 96.348
6898.0 96.501
6898.6 96.485
6899.099999999999 96.62
6899.700000000001 96.407
6900.299999999999 96.467
6900.900000000001 96.936
6901.4 96.67
6902.0 96.456
6902.6 96.457
6903.200000000001 97.089
6903.8 96.309
6904.299999999999 96.63
6904.9 96.447
6905.5 96.675
6906.1 96.391
6906.7 96.38
6907.200000000001 96.729
6907.799999999999 96.767
6908.400000000001 96.714
6909.0 96.938
6909.5 96.436
6910.1 96.639
6910.700000000001 96.699
6911.3 96.833
6911.900000000001 96.714
6912.4 96.685
6913.0 96.759
6913.6 96.551
6914.2 96.616
6914.700000000001 96.719
6915.299999999999 96.714
6915.900000000001 96.427
6916.5 96.696
6917.0 96.559
6917.6 96.118
6918.200000000001 96.848
6918.8 96.638
6919.299999999999 96.75
6919.9 96.625
6920.5 97.056
6921.1 96.921
6921.599999999999 96.929
6922.200000000001 96.728
6922.799999999999 96.698
6923.400000000001 97.272
6923.9 96.582
6924.5 96.711
6925.1 96.83
6925.700000000001 96.754
6926.2 97.013
6926.799999999999 96.656
6927.4 96.613
6928.0 96.621
6928.5 96.393
6929.099999999999 96.638
6929.700000000001 96.617
6930.299999999999 96.63
6930.8 96.695
6931.4 96.863
6932.0 96.899
6932.6 96.703
6933.099999999999 96.737
6933.7 96.409
6934.299999999999 96.877
6934.8 96.474
6935.4 96.925
6936.0 97.085
6936.599999999999 96.835
6937.1 96.641
6937.7 96.692
6938.3 96.836
6938.9 96.748
6939.400000000001 96.288
6940.0 96.967
6940.599999999999 96.819
6941.1 96.737
6941.7 96.484
6942.3 96.733
6942.9 96.902
6943.400000000001 96.41
6944.0 96.466
6944.6 96.67
6945.1 96.267
6945.700000000001 96.511
6946.3 96.567
6946.799999999999 96.564
6947.4 96.713
6948.0 96.591
6948.6 96.608
6949.099999999999 96.726
6949.700000000001 97.075
6950.299999999999 96.624
6950.8 96.738
6951.4 96.828
6952.0 96.748
6952.5 96.771
6953.099999999999 96.411
6953.7 96.702
6954.299999999999 96.7
6954.8 96.58
6955.4 96.386
6956.0 96.192
6956.5 96.586
6957.1 96.939
6957.7 97.03
6958.200000000001 96.643
6958.8 96.794
6959.400000000001 96.949
6959.9 96.525
6960.5 96.494
6961.1 96.613
6961.599999999999 96.653
6962.200000000001 96.674
6962.799999999999 96.459
6963.3 96.401
6963.9 96.687
6964.5 96.643
6965.0 97.045
6965.599999999999 96.694
6966.2 96.779
6966.7 96.485
6967.3 96.884
6967.9 96.695
6968.400000000001 96.883
6969.0 96.302
6969.6 96.732
6970.1 96.382
6970.700000000001 96.386
6971.3 96.744
6971.799999999999 96.584
6972.4 96.633
6973.0 96.686
6973.5 97.077
6974.099999999999 96.235
6974.6 96.727
6975.2 96.681
6975.8 96.536
6976.3 96.481
6976.900000000001 96.537
6977.5 96.103
6978.0 96.47
6978.6 96.514
6979.2 96.495
6979.700000000001 96.452
6980.299999999999 96.856
6980.8 96.641
6981.4 96.641
6982.0 96.522
6982.5 96.654
6983.099999999999 96.628
6983.7 96.577
6984.2 96.443
6984.8 96.558
6985.299999999999 96.31
6985.900000000001 96.449
6986.5 96.417
6987.0 96.726
6987.6 96.59
6988.200000000001 96.623
6988.7 96.59
6989.299999999999 96.769
6989.8 96.707
6990.4 96.53
6991.0 96.591
6991.5 96.727
6992.1 96.645
6992.6 96.65
6993.200000000001 96.642
6993.8 96.466
6994.299999999999 96.665
6994.9 96.235
6995.4 96.697
6996.0 96.473
6996.599999999999 96.611
6997.1 96.26
6997.7 96.781
6998.200000000001 96.343
6998.8 96.337
6999.400000000001 96.637
6999.9 96.8
7000.5 96.481
7001.0 96.656
7001.599999999999 96.319
7002.200000000001 96.34
7002.7 96.293
7003.3 96.6
7003.8 96.8
7004.400000000001 96.32
7004.9 96.509
7005.5 96.628
7006.1 96.831
7006.599999999999 96.191
7007.200000000001 96.595
7007.7 96.177
7008.3 96.247
7008.8 96.2
7009.400000000001 96.394
7010.0 96.654
7010.5 96.166
7011.1 96.428
7011.599999999999 96.695
7012.200000000001 96.168
7012.7 96.516
7013.3 96.514
7013.8 96.327
7014.400000000001 96.321
7015.0 96.19
7015.5 96.383
7016.1 95.888
7016.599999999999 96.429
7017.200000000001 96.044
7017.7 96.428
7018.3 96.362
7018.8 96.322
7019.400000000001 96.484
7019.9 96.316
7020.5 96.422
7021.1 96.433
7021.599999999999 96.261
7022.200000000001 96.326
7022.7 96.157
7023.3 96.181
7023.8 96.303
7024.400000000001 96.579
7024.9 96.34
7025.5 96.541
7026.0 96.613
7026.599999999999 96.021
7027.1 96.561
7027.7 96.19
7028.200000000001 96.346
7028.8 96.25
7029.400000000001 96.597
7029.9 96.199
7030.5 96.548
7031.0 96.188
7031.599999999999 96.242
7032.1 96.324
7032.7 96.508
7033.200000000001 96.104
7033.8 96.343
7034.299999999999 96.264
7034.9 96.514
7035.4 96.019
7036.0 96.606
7036.5 96.293
7037.1 96.317
7037.6 96.493
7038.200000000001 95.98
7038.7 96.489
7039.299999999999 96.021
7039.8 96.582
7040.4 96.301
7040.900000000001 96.252
7041.5 96.312
7042.0 96.308
7042.6 96.43
7043.099999999999 96.256
7043.7 96.445
7044.2 96.276
7044.8 96.222
7045.299999999999 96.327
7045.900000000001 96.623
7046.4 96.263
7046.900000000001 96.482
7047.5 96.605
7048.0 96.436
7048.6 96.323
7049.099999999999 96.085
7049.700000000001 96.082
7050.2 96.488
7050.8 96.149
7051.3 96.586
7051.900000000001 96.327
7052.4 96.197
7053.0 96.469
7053.5 96.152
7054.099999999999 96.554
7054.6 96.222
7055.1 96.67
7055.700000000001 96.297
7056.2 96.623
7056.799999999999 96.477
7057.3 96.601
7057.9 96.214
7058.400000000001 96.339
7059.0 96.451
7059.5 96.459
7060.1 96.615
7060.599999999999 96.715
7061.1 96.584
7061.7 96.425
7062.200000000001 96.647
7062.799999999999 96.649
7063.3 96.569
7063.9 96.381
7064.400000000001 96.718
7064.9 96.376
7065.5 96.06
7066.0 96.991
7066.599999999999 96.74
7067.1 96.426
7067.7 96.659
7068.200000000001 96.487
7068.7 96.776
7069.299999999999 96.515
7069.8 96.615
7070.4 96.529
7070.900000000001 96.538
7071.5 96.347
7072.0 96.427
7072.5 96.386
7073.099999999999 96.792
7073.6 96.299
7074.2 97.119
7074.700000000001 96.587
7075.2 96.61
7075.8 96.655
7076.3 96.501
7076.900000000001 96.29
7077.4 96.732
7077.9 96.648
7078.5 96.633
7079.0 96.49
7079.6 96.91
7080.1 96.614
7080.599999999999 96.446
7081.2 96.585
7081.7 96.27
7082.3 96.605
7082.799999999999 96.51
7083.3 96.606
7083.9 96.696
7084.400000000001 96.275
7085.0 96.493
7085.5 96.698
7086.0 96.773
7086.599999999999 96.313
7087.1 96.264
7087.6 96.614
7088.200000000001 96.604
7088.7 96.351
7089.299999999999 96.761
7089.8 96.132
7090.299999999999 96.173
7090.900000000001 95.92
7091.4 95.962
7091.900000000001 96.229
7092.5 96.069
7093.0 95.947
7093.5 95.682
7094.099999999999 96.149
7094.6 95.808
7095.2 95.794
7095.700000000001 95.883
7096.2 95.824
7096.799999999999 95.672
7097.3 95.439
7097.799999999999 95.74
7098.400000000001 96.018
7098.9 95.646
7099.400000000001 95.441
7100.0 95.469
7100.5 95.718
7101.0 95.144
7101.599999999999 95.599
7102.1 94.996
7102.6 95.099
7103.200000000001 95.317
7103.7 95.258
7104.2 95.061
7104.8 94.704
7105.299999999999 94.697
7105.8 94.346
7106.4 94.868
7106.900000000001 94.58
7107.4 94.266
7108.0 94.185
7108.5 94.155
7109.0 94.228
7109.6 93.672
7110.1 93.965
7110.599999999999 93.894
7111.1 93.731
7111.7 93.586
7112.200000000001 93.61
7112.7 93.651
7113.3 93.255
7113.8 93.332
7114.299999999999 93.105
7114.9 93.034
7115.4 92.651
7115.900000000001 92.814
7116.5 92.376
7117.0 92.581
7117.5 92.368
7118.0 92.248
7118.6 92.25
7119.099999999999 92.132
7119.6 91.886
7120.2 91.842
7120.700000000001 91.292
7121.2 91.579
7121.7 91.242
7122.3 91.062
7122.799999999999 90.657
7123.3 90.877
7123.9 90.969
7124.400000000001 90.499
7124.9 90.36
7125.4 90.588
7126.0 90.354
7126.5 89.976
7127.0 90.091
7127.5 89.925
7128.099999999999 89.822
7128.6 89.658
7129.099999999999 89.33
7129.6 89.324
7130.2 89.303
7130.700000000001 89.069
7131.2 88.683
7131.7 88.488
7132.3 88.731
7132.799999999999 88.388
7133.3 88.25
7133.8 88.074
7134.400000000001 87.424
7134.9 87.715
7135.4 87.657
7135.900000000001 87.253
7136.5 87.192
7137.0 86.987
7137.5 86.852
7138.0 86.554
7138.6 86.71
7139.099999999999 86.498
7139.6 86.274
7140.1 86.314
7140.700000000001 86.058
7141.2 85.728
7141.7 85.693
7142.200000000001 85.52
7142.7 85.406
7143.3 85.632
7143.8 84.955
7144.299999999999 85.174
7144.8 84.808
7145.4 84.423
7145.900000000001 84.313
7146.4 84.408
7146.900000000001 84.365
7147.4 83.772
7148.0 83.607
7148.5 83.84
7149.0 83.383
7149.5 83.354
7150.0 83.148
7150.599999999999 83.244
7151.1 82.955
7151.599999999999 82.624
7152.1 82.533
7152.6 82.441
7153.200000000001 82.115
7153.7 82.114
7154.2 81.859
7154.700000000001 81.65
7155.2 81.774
7155.8 81.529
7156.3 81.294
7156.799999999999 81.596
7157.3 81.253
7157.799999999999 80.802
7158.3 80.906
7158.9 80.475
7159.400000000001 80.542
7159.9 80.788
7160.4 80.532
7160.900000000001 80.472
7161.4 80.3
7162.0 80.334
7162.5 79.878
7163.0 79.54
7163.5 79.448
7164.0 79.549
7164.5 79.464
7165.1 79.244
7165.599999999999 78.978
7166.1 79.107
7166.599999999999 78.983
7167.1 78.495
7167.6 78.89
7168.200000000001 78.56
7168.7 78.228
7169.2 78.066
7169.700000000001 77.993
7170.2 77.801
7170.700000000001 77.661
7171.2 77.724
7171.7 77.795
7172.3 77.555
7172.799999999999 77.507
7173.3 77.453
7173.8 76.86
7174.299999999999 76.642
7174.8 76.71
7175.299999999999 76.485
7175.900000000001 76.036
7176.4 76.345
7176.900000000001 76.136
7177.4 75.878
7177.9 75.741
7178.400000000001 75.426
7178.9 75.548
7179.400000000001 75.266
7179.9 75.289
7180.5 74.97
7181.0 74.532
7181.5 74.602
7182.0 74.454
7182.5 74.125
7183.0 73.974
7183.5 73.961
7184.0 73.571
7184.5 73.009
7185.0 73.542
7185.599999999999 72.877
7186.1 72.605
7186.599999999999 72.336
7187.1 72.189
7187.6 71.856
7188.099999999999 71.587
7188.6 71.427
7189.099999999999 71.11
7189.6 70.882
7190.1 70.482
7190.599999999999 70.409
7191.2 70.013
7191.7 69.589
7192.200000000001 69.37
7192.7 69.183
7193.200000000001 68.732
7193.7 68.381
7194.2 67.687
7194.700000000001 67.383
7195.2 67.051
7195.700000000001 66.62
7196.2 66.382
7196.7 65.924
7197.200000000001 65.557
7197.7 65.061
7198.200000000001 64.537
7198.7 64.161
7199.299999999999 63.665
7199.8 63.637
7200.299999999999 62.947
7200.8 62.279
7201.3 61.671
7201.799999999999 61.38
7202.3 60.703
7202.799999999999 60.049
7203.3 59.852
7203.8 59.147
7204.299999999999 58.728
7204.8 57.861
7205.299999999999 57.553
7205.8 57.085
7206.3 56.423
7206.799999999999 55.837
7207.3 55.125
7207.799999999999 54.524
7208.3 54.007
7208.8 53.5
7209.299999999999 52.707
7209.8 52.159
7210.299999999999 51.474
7210.8 50.822
7211.3 50.045
7211.799999999999 49.53
7212.3 48.872
7212.799999999999 48.342
7213.3 47.586
7213.8 47.101
7214.299999999999 46.348
7214.8 45.642
7215.299999999999 45.261
7215.8 44.283
7216.3 43.622
7216.799999999999 42.933
7217.3 42.263
7217.799999999999 41.724
7218.3 41.129
7218.8 40.26
7219.299999999999 39.699
7219.8 38.937
7220.299999999999 38.597
7220.8 37.631
7221.3 37.108
7221.799999999999 36.696
7222.3 35.942
7222.799999999999 35.142
7223.3 34.83
7223.8 34.237
7224.299999999999 33.604
7224.8 32.825
7225.299999999999 32.209
7225.8 31.64
7226.3 31.26
7226.799999999999 30.623
7227.3 29.89
7227.799999999999 29.427
7228.3 28.832
7228.8 28.281
7229.299999999999 27.764
7229.8 27.277
7230.299999999999 26.708
7230.700000000001 26.088
7231.2 25.624
7231.7 25.091
7232.200000000001 24.499
7232.7 24.102
7233.200000000001 23.613
7233.7 23.273
7234.2 22.731
7234.700000000001 22.362
7235.2 21.87
7235.700000000001 21.371
7236.2 20.919
7236.7 20.594
7237.200000000001 20.086
7237.7 19.623
7238.099999999999 19.224
7238.6 19.013
7239.099999999999 18.462
7239.6 18.139
7240.1 17.767
7240.599999999999 17.434
7241.1 16.978
7241.599999999999 16.742
7242.1 16.348
7242.6 15.934
7243.099999999999 15.496
7243.6 15.288
7244.0 14.905
7244.5 14.658
7245.0 14.332
7245.5 13.96
7246.0 13.837
7246.5 13.403
7247.0 13.185
7247.5 12.933
7248.0 12.627
7248.400000000001 12.259
7248.9 12.061
7249.400000000001 11.874
7249.9 11.553
7250.4 11.392
7250.900000000001 11.099
7251.4 10.894
7251.900000000001 10.789
7252.4 10.447
7252.799999999999 10.293
7253.3 10.048
7253.8 9.808
7254.299999999999 9.675
7254.8 9.444
7255.299999999999 9.236
7255.8 9.058
7256.2 8.979
7256.7 8.67
7257.200000000001 8.456
7257.7 8.306
7258.200000000001 8.142
7258.7 8.014
7259.2 7.805
7259.6 7.71
7260.1 7.59
7260.599999999999 7.398
7261.1 7.186
7261.599999999999 7.048
7262.1 6.899
7262.5 6.758
7263.0 6.689
7263.5 6.501
7264.0 6.356
7264.5 6.232
7265.0 6.174
7265.4 6.004
7265.900000000001 5.942
7266.4 5.776
7266.900000000001 5.686
7267.4 5.554
7267.9 5.409
7268.3 5.309
7268.8 5.226
7269.299999999999 5.159
7269.8 5.078
7270.299999999999 4.999
7270.700000000001 4.84
7271.2 4.742
7271.7 4.677
7272.200000000001 4.63
7272.7 4.521
7273.099999999999 4.412
7273.6 4.318
7274.099999999999 4.197
7274.6 4.173
7275.1 4.132
7275.5 4.003
7276.0 3.964
7276.5 3.841
7277.0 3.82
7277.5 3.763
7277.9 3.628
7278.400000000001 3.636
7278.9 3.521
7279.400000000001 3.5
7279.8 3.409
7280.299999999999 3.377
7280.8 3.299
7281.3 3.238
7281.799999999999 3.144
7282.200000000001 3.112
7282.7 3.048
7283.200000000001 3.046
7283.7 2.989
7284.099999999999 2.932
7284.6 2.845
7285.1 2.811
7285.599999999999 2.775
7286.0 2.726
7286.5 2.66
7287.0 2.669
7287.5 2.587
7287.9 2.518
7288.400000000001 2.498
7288.9 2.426
7289.400000000001 2.368
7289.8 2.364
7290.299999999999 2.351
7290.8 2.296
7291.3 2.225
7291.7 2.221
7292.200000000001 2.167
7292.7 2.13
7293.200000000001 2.108
7293.6 2.035
7294.099999999999 2.074
7294.6 1.966
7295.0 1.966
7295.5 1.987
7296.0 1.849
7296.5 1.854
7296.900000000001 1.825
7297.4 1.8
7297.9 1.774
7298.3 1.748
7298.8 1.734
7299.299999999999 1.693
7299.700000000001 1.664
7300.2 1.636
7300.700000000001 1.622
7301.2 1.584
7301.599999999999 1.555
7302.1 1.554
7302.6 1.527
7303.0 1.542
7303.5 1.518
7304.0 1.453
7304.400000000001 1.424
7304.9 1.369
7305.4 1.358
7305.8 1.353
7306.3 1.334
7306.799999999999 1.36
7307.200000000001 1.324
7307.7 1.283
7308.200000000001 1.254
7308.6 1.255
7309.099999999999 1.243
7309.6 1.216
7310.0 1.209
7310.5 1.197
7311.0 1.161
7311.4 1.16
7311.900000000001 1.119
7312.4 1.108
7312.799999999999 1.097
7313.3 1.08
7313.8 1.034
7314.2 1.054
7314.700000000001 1.025
7315.2 1.034
7315.599999999999 0.995
7316.1 1.017
7316.599999999999 0.982
7317.0 0.942
7317.5 0.951
7317.9 0.926
7318.400000000001 0.922
7318.9 0.9
7319.299999999999 0.891
7319.8 0.9
7320.299999999999 0.89
7320.700000000001 0.841
7321.2 0.864
7321.599999999999 0.828
7322.1 0.812
7322.6 0.821
7323.0 0.812
7323.5 0.76
7324.0 0.797
7324.400000000001 0.747
7324.9 0.763
7325.299999999999 0.753
7325.8 0.773
7326.3 0.743
7326.7 0.711
7327.200000000001 0.707
7327.6 0.684
7328.099999999999 0.676
7328.5 0.681
7329.0 0.711
7329.5 0.661
7329.9 0.667
7330.4 0.639
7330.8 0.666
7331.3 0.622
7331.799999999999 0.607
7332.200000000001 0.611
7332.7 0.603
7333.099999999999 0.585
7333.6 0.586
7334.0 0.569
7334.5 0.592
7335.0 0.574
7335.4 0.564
7335.900000000001 0.551
7336.3 0.533
7336.799999999999 0.545
7337.200000000001 0.546
7337.7 0.519
7338.099999999999 0.5
7338.6 0.506
7339.099999999999 0.52
7339.5 0.49
7340.0 0.489
7340.4 0.483
7340.900000000001 0.469
7341.3 0.463
7341.799999999999 0.492
7342.200000000001 0.457
7342.7 0.462
7343.099999999999 0.445
7343.6 0.43
7344.0 0.451
7344.5 0.457
7345.0 0.437
7345.4 0.405
7345.900000000001 0.439
7346.3 0.398
7346.799999999999 0.407
7347.200000000001 0.399
7347.7 0.429
7348.099999999999 0.384
7348.6 0.39
7349.0 0.391
7349.5 0.37
7349.9 0.393
7350.4 0.387
7350.8 0.385
7351.3 0.341
7351.7 0.349
7352.200000000001 0.369
7352.6 0.34
7353.099999999999 0.341
7353.5 0.337
7354.0 0.354
7354.400000000001 0.343
7354.9 0.35
7355.299999999999 0.32
7355.8 0.322
7356.2 0.339
7356.599999999999 0.313
7357.1 0.322
7357.5 0.321
7358.0 0.293
7358.400000000001 0.311
7358.9 0.296
7359.299999999999 0.294
7359.8 0.307
7360.2 0.297
7360.700000000001 0.304
7361.1 0.284
7361.599999999999 0.293
7362.0 0.286
7362.4 0.292
7362.9 0.27
7363.3 0.261
7363.8 0.259
7364.2 0.267
7364.700000000001 0.265
7365.1 0.253
7365.599999999999 0.251
7366.0 0.257
7366.4 0.242
7366.900000000001 0.267
7367.3 0.235
7367.799999999999 0.239
7368.200000000001 0.268
7368.7 0.249
7369.099999999999 0.252
7369.5 0.23
7370.0 0.249
7370.4 0.245
7370.900000000001 0.229
7371.3 0.233
7371.799999999999 0.224
7372.200000000001 0.233
7372.6 0.225
7373.099999999999 0.23
7373.5 0.217
7374.0 0.216
7374.400000000001 0.218
7374.8 0.193
7375.299999999999 0.214
7375.700000000001 0.205
7376.2 0.199
7376.599999999999 0.207
7377.0 0.211
7377.5 0.197
7377.9 0.186
7378.3 0.202
7378.8 0.196
7379.2 0.188
7379.700000000001 0.191
7380.1 0.193
7380.5 0.193
7381.0 0.18
7381.4 0.185
7381.799999999999 0.182
7382.3 0.2
7382.7 0.174
7383.200000000001 0.181
7383.6 0.179
7384.0 0.164
7384.5 0.188
7384.9 0.173
7385.299999999999 0.167
7385.8 0.167
7386.2 0.159
7386.599999999999 0.159
7387.1 0.165
7387.5 0.16
7387.9 0.17
7388.400000000001 0.171
7388.8 0.158
7389.2 0.151
7389.700000000001 0.173
7390.1 0.151
7390.5 0.155
7391.0 0.154
7391.4 0.155
7391.799999999999 0.153
7392.3 0.16
7392.7 0.152
7393.099999999999 0.162
7393.6 0.164
7394.0 0.151
7394.400000000001 0.145
